# 1D Histogram Bin Extraction 
#                   
# histogram parameters:  
# title      : Out-of-Plane Angle, $\phi_{pq}$   
# xbins      : 100   
# xlabel     :  out-of-plane angle, $\phi_{pq}$ [deg]   
# xbin_width : 3.800 
# ylabel     :  Counts   
#                   
# header definitions:
# xb:         x-axis bin number 
# x0:         x-axis central bin value 
# xlow:       x-axis low-edge bin value 
# xup:        x-axis up-edge bin value 
# ycont:      bin content (y-axis) 
# ycont_err:  bin content error (y-axis) 
#                                        
xb,x0,xlow,xup,ycont,ycont_err
1,-188.100,-190.000,-186.200,0.000,0.000
2,-184.300,-186.200,-182.400,0.000,0.000
3,-180.500,-182.400,-178.600,513.543,128.438
4,-176.700,-178.600,-174.800,994.792,134.282
5,-172.900,-174.800,-171.000,1129.293,150.708
6,-169.100,-171.000,-167.200,1057.336,146.138
7,-165.300,-167.200,-163.400,835.335,136.817
8,-161.500,-163.400,-159.600,866.923,127.859
9,-157.700,-159.600,-155.800,1280.807,162.519
10,-153.900,-155.800,-152.000,993.602,137.932
11,-150.100,-152.000,-148.200,1013.095,128.633
12,-146.300,-148.200,-144.400,1078.392,134.724
13,-142.500,-144.400,-140.600,1220.021,156.911
14,-138.700,-140.600,-136.800,1210.335,131.580
15,-134.900,-136.800,-133.000,1202.944,132.915
16,-131.100,-133.000,-129.200,1323.443,149.217
17,-127.300,-129.200,-125.400,1561.458,167.857
18,-123.500,-125.400,-121.600,1332.636,129.630
19,-119.700,-121.600,-117.800,1866.083,178.995
20,-115.900,-117.800,-114.000,1406.014,157.039
21,-112.100,-114.000,-110.200,1432.433,133.010
22,-108.300,-110.200,-106.400,1653.390,172.186
23,-104.500,-106.400,-102.600,1116.693,119.549
24,-100.700,-102.600,-98.800,1211.877,141.926
25,-96.900,-98.800,-95.000,1005.329,105.340
26,-93.100,-95.000,-91.200,848.355,108.927
27,-89.300,-91.200,-87.400,813.003,105.220
28,-85.500,-87.400,-83.600,754.164,92.048
29,-81.700,-83.600,-79.800,477.622,63.740
30,-77.900,-79.800,-76.000,359.021,61.659
31,-74.100,-76.000,-72.200,284.274,50.799
32,-70.300,-72.200,-68.400,171.768,40.422
33,-66.500,-68.400,-64.600,247.013,56.700
34,-62.700,-64.600,-60.800,168.575,36.446
35,-58.900,-60.800,-57.000,100.592,25.690
36,-55.100,-57.000,-53.200,67.174,26.960
37,-51.300,-53.200,-49.400,177.271,48.489
38,-47.500,-49.400,-45.600,131.752,53.165
39,-43.700,-45.600,-41.800,92.757,32.562
40,-39.900,-41.800,-38.000,59.422,26.708
41,-36.100,-38.000,-34.200,28.999,7.451
42,-32.300,-34.200,-30.400,133.165,49.543
43,-28.500,-30.400,-26.600,64.796,26.880
44,-24.700,-26.600,-22.800,44.792,16.567
45,-20.900,-22.800,-19.000,83.332,37.737
46,-17.100,-19.000,-15.200,57.137,26.976
47,-13.300,-15.200,-11.400,38.632,16.108
48,-9.500,-11.400,-7.600,66.300,39.851
49,-5.700,-7.600,-3.800,97.400,40.633
50,-1.900,-3.800,0.000,27.551,13.789
51,1.900,0.000,3.800,52.090,25.666
52,5.700,3.800,7.600,38.690,19.498
53,9.500,7.600,11.400,20.737,8.821
54,13.300,11.400,15.200,61.078,39.101
55,17.100,15.200,19.000,75.356,36.160
56,20.900,19.000,22.800,53.408,23.695
57,24.700,22.800,26.600,54.723,21.944
58,28.500,26.600,30.400,91.974,40.769
59,32.300,30.400,34.200,67.486,20.543
60,36.100,34.200,38.000,76.623,27.880
61,39.900,38.000,41.800,129.405,39.269
62,43.700,41.800,45.600,156.235,49.835
63,47.500,45.600,49.400,40.821,10.608
64,51.300,49.400,53.200,124.179,38.364
65,55.100,53.200,57.000,90.041,25.433
66,58.900,57.000,60.800,161.335,42.475
67,62.700,60.800,64.600,167.704,52.354
68,66.500,64.600,68.400,220.259,51.381
69,70.300,68.400,72.200,365.209,75.530
70,74.100,72.200,76.000,450.632,87.290
71,77.900,76.000,79.800,607.919,88.449
72,81.700,79.800,83.600,522.660,71.480
73,85.500,83.600,87.400,863.184,113.019
74,89.300,87.400,91.200,1017.313,113.862
75,93.100,91.200,95.000,1193.925,125.243
76,96.900,95.000,98.800,1309.479,137.455
77,100.700,98.800,102.600,1584.817,153.407
78,104.500,102.600,106.400,1417.193,121.160
79,108.300,106.400,110.200,1544.106,155.928
80,112.100,110.200,114.000,1822.725,161.591
81,115.900,114.000,117.800,1791.486,168.462
82,119.700,117.800,121.600,1757.819,174.974
83,123.500,121.600,125.400,1454.936,146.368
84,127.300,125.400,129.200,1324.222,135.194
85,131.100,129.200,133.000,1777.447,165.720
86,134.900,133.000,136.800,1829.707,190.430
87,138.700,136.800,140.600,1482.196,162.452
88,142.500,140.600,144.400,1569.727,173.858
89,146.300,144.400,148.200,1414.762,178.087
90,150.100,148.200,152.000,1187.850,147.962
91,153.900,152.000,155.800,1281.682,164.567
92,157.700,155.800,159.600,1315.595,154.371
93,161.500,159.600,163.400,1025.834,144.301
94,165.300,163.400,167.200,1478.573,183.330
95,169.100,167.200,171.000,1353.148,191.485
96,172.900,171.000,174.800,1139.262,159.603
97,176.700,174.800,178.600,932.908,131.725
98,180.500,178.600,182.400,376.337,93.112
99,184.300,182.400,186.200,0.000,0.000
100,188.100,186.200,190.000,0.000,0.000
