# 1D Histogram Bin Extraction 
#                   
# histogram parameters:  
# title      : Out-of-Plane Angle, $\phi_{pq}$ (vertex)   
# xbins      : 100   
# xlabel     :  out-of-plane angle, $\phi_{pq}$ [deg]   
# xbin_width : 3.800 
# ylabel     :  Counts   
#                   
# header definitions:
# xb:         x-axis bin number 
# x0:         x-axis central bin value 
# xlow:       x-axis low-edge bin value 
# xup:        x-axis up-edge bin value 
# ycont:      bin content (y-axis) 
# ycont_err:  bin content error (y-axis) 
#                                        
xb,x0,xlow,xup,ycont,ycont_err
1,-188.100,-190.000,-186.200,0.000,0.000
2,-184.300,-186.200,-182.400,0.000,0.000
3,-180.500,-182.400,-178.600,3749.135,529.053
4,-176.700,-178.600,-174.800,9923.882,889.541
5,-172.900,-174.800,-171.000,10738.871,917.193
6,-169.100,-171.000,-167.200,10876.401,986.027
7,-165.300,-167.200,-163.400,11289.938,977.255
8,-161.500,-163.400,-159.600,9768.232,893.702
9,-157.700,-159.600,-155.800,9477.836,818.157
10,-153.900,-155.800,-152.000,10861.856,897.400
11,-150.100,-152.000,-148.200,10576.583,902.490
12,-146.300,-148.200,-144.400,9988.954,899.513
13,-142.500,-144.400,-140.600,9158.868,755.003
14,-138.700,-140.600,-136.800,11093.188,945.806
15,-134.900,-136.800,-133.000,10354.939,840.027
16,-131.100,-133.000,-129.200,8543.270,776.669
17,-127.300,-129.200,-125.400,9630.204,798.383
18,-123.500,-125.400,-121.600,8872.881,657.686
19,-119.700,-121.600,-117.800,8623.694,660.716
20,-115.900,-117.800,-114.000,8681.499,755.727
21,-112.100,-114.000,-110.200,7490.771,639.593
22,-108.300,-110.200,-106.400,7087.108,530.175
23,-104.500,-106.400,-102.600,7620.680,741.618
24,-100.700,-102.600,-98.800,8349.079,703.266
25,-96.900,-98.800,-95.000,6790.643,560.933
26,-93.100,-95.000,-91.200,5176.435,423.289
27,-89.300,-91.200,-87.400,5653.819,573.317
28,-85.500,-87.400,-83.600,4664.044,490.671
29,-81.700,-83.600,-79.800,4969.844,513.072
30,-77.900,-79.800,-76.000,3394.239,351.625
31,-74.100,-76.000,-72.200,3935.043,534.625
32,-70.300,-72.200,-68.400,3554.192,437.413
33,-66.500,-68.400,-64.600,3067.505,384.187
34,-62.700,-64.600,-60.800,2459.964,283.802
35,-58.900,-60.800,-57.000,2385.461,317.818
36,-55.100,-57.000,-53.200,1654.878,259.620
37,-51.300,-53.200,-49.400,1884.954,265.986
38,-47.500,-49.400,-45.600,2006.433,376.640
39,-43.700,-45.600,-41.800,1366.032,218.087
40,-39.900,-41.800,-38.000,1455.875,228.515
41,-36.100,-38.000,-34.200,1705.225,304.085
42,-32.300,-34.200,-30.400,1551.065,344.124
43,-28.500,-30.400,-26.600,1526.192,249.136
44,-24.700,-26.600,-22.800,1210.239,204.080
45,-20.900,-22.800,-19.000,1673.510,372.720
46,-17.100,-19.000,-15.200,876.781,136.276
47,-13.300,-15.200,-11.400,1351.148,329.707
48,-9.500,-11.400,-7.600,1785.733,336.781
49,-5.700,-7.600,-3.800,1456.084,245.077
50,-1.900,-3.800,0.000,1100.502,250.120
51,1.900,0.000,3.800,1054.689,179.098
52,5.700,3.800,7.600,721.268,112.239
53,9.500,7.600,11.400,1322.834,248.098
54,13.300,11.400,15.200,1060.135,239.985
55,17.100,15.200,19.000,1716.683,406.208
56,20.900,19.000,22.800,1300.232,238.921
57,24.700,22.800,26.600,1087.293,189.955
58,28.500,26.600,30.400,1712.256,291.003
59,32.300,30.400,34.200,2345.791,504.368
60,36.100,34.200,38.000,1344.134,175.851
61,39.900,38.000,41.800,1964.283,442.808
62,43.700,41.800,45.600,1603.057,222.725
63,47.500,45.600,49.400,2756.891,468.426
64,51.300,49.400,53.200,1791.856,181.690
65,55.100,53.200,57.000,1852.914,238.137
66,58.900,57.000,60.800,2513.924,295.501
67,62.700,60.800,64.600,2910.616,293.599
68,66.500,64.600,68.400,3688.703,445.033
69,70.300,68.400,72.200,3977.000,424.512
70,74.100,72.200,76.000,4202.641,534.985
71,77.900,76.000,79.800,4479.376,385.705
72,81.700,79.800,83.600,5836.220,622.505
73,85.500,83.600,87.400,5762.459,489.129
74,89.300,87.400,91.200,7184.602,623.801
75,93.100,91.200,95.000,6614.595,476.881
76,96.900,95.000,98.800,7156.285,587.580
77,100.700,98.800,102.600,7505.563,541.534
78,104.500,102.600,106.400,9100.321,600.561
79,108.300,106.400,110.200,9095.662,701.988
80,112.100,110.200,114.000,9720.965,749.725
81,115.900,114.000,117.800,11226.923,834.978
82,119.700,117.800,121.600,9297.952,726.795
83,123.500,121.600,125.400,10751.729,803.947
84,127.300,125.400,129.200,11152.316,907.596
85,131.100,129.200,133.000,9961.274,700.357
86,134.900,133.000,136.800,9809.668,752.026
87,138.700,136.800,140.600,11351.415,931.846
88,142.500,140.600,144.400,10338.939,916.968
89,146.300,144.400,148.200,11872.014,907.053
90,150.100,148.200,152.000,10984.660,942.090
91,153.900,152.000,155.800,10107.938,888.291
92,157.700,155.800,159.600,9538.961,871.896
93,161.500,159.600,163.400,11183.479,985.685
94,165.300,163.400,167.200,10233.118,875.110
95,169.100,167.200,171.000,12139.207,1115.962
96,172.900,171.000,174.800,10884.057,974.865
97,176.700,174.800,178.600,10856.397,905.617
98,180.500,178.600,182.400,4041.642,604.697
99,184.300,182.400,186.200,0.000,0.000
100,188.100,186.200,190.000,0.000,0.000
