# 1D Histogram Bin Extraction 
#                   
# histogram parameters:  
# title      : Out-of-Plane Angle, $\phi_{pq}$   
# xbins      : 100   
# xlabel     :  out-of-plane angle, $\phi_{pq}$ [deg]   
# xbin_width : 3.800 
# ylabel     :  Counts   
#                   
# header definitions:
# xb:         x-axis bin number 
# x0:         x-axis central bin value 
# xlow:       x-axis low-edge bin value 
# xup:        x-axis up-edge bin value 
# ycont:      bin content (y-axis) 
# ycont_err:  bin content error (y-axis) 
#                                        
xb,x0,xlow,xup,ycont,ycont_err
1,-188.100,-190.000,-186.200,0.000,0.000
2,-184.300,-186.200,-182.400,0.000,0.000
3,-180.500,-182.400,-178.600,323.695,26.190
4,-176.700,-178.600,-174.800,835.479,41.732
5,-172.900,-174.800,-171.000,835.742,43.143
6,-169.100,-171.000,-167.200,786.158,36.743
7,-165.300,-167.200,-163.400,752.864,40.074
8,-161.500,-163.400,-159.600,782.986,37.147
9,-157.700,-159.600,-155.800,688.558,34.291
10,-153.900,-155.800,-152.000,729.537,37.083
11,-150.100,-152.000,-148.200,645.151,34.586
12,-146.300,-148.200,-144.400,594.644,29.487
13,-142.500,-144.400,-140.600,534.006,29.601
14,-138.700,-140.600,-136.800,549.396,28.114
15,-134.900,-136.800,-133.000,471.134,24.397
16,-131.100,-133.000,-129.200,448.071,23.656
17,-127.300,-129.200,-125.400,441.931,22.999
18,-123.500,-125.400,-121.600,373.216,21.066
19,-119.700,-121.600,-117.800,310.809,15.184
20,-115.900,-117.800,-114.000,260.945,12.782
21,-112.100,-114.000,-110.200,256.248,14.889
22,-108.300,-110.200,-106.400,199.042,12.308
23,-104.500,-106.400,-102.600,147.259,8.536
24,-100.700,-102.600,-98.800,123.321,8.666
25,-96.900,-98.800,-95.000,103.875,8.409
26,-93.100,-95.000,-91.200,75.880,5.823
27,-89.300,-91.200,-87.400,64.256,6.916
28,-85.500,-87.400,-83.600,43.359,4.629
29,-81.700,-83.600,-79.800,32.881,5.114
30,-77.900,-79.800,-76.000,24.886,3.410
31,-74.100,-76.000,-72.200,11.718,1.695
32,-70.300,-72.200,-68.400,9.812,2.059
33,-66.500,-68.400,-64.600,6.691,1.358
34,-62.700,-64.600,-60.800,8.622,3.632
35,-58.900,-60.800,-57.000,5.356,1.619
36,-55.100,-57.000,-53.200,2.609,0.629
37,-51.300,-53.200,-49.400,6.294,1.335
38,-47.500,-49.400,-45.600,3.579,1.285
39,-43.700,-45.600,-41.800,3.677,1.384
40,-39.900,-41.800,-38.000,1.976,0.680
41,-36.100,-38.000,-34.200,3.576,2.488
42,-32.300,-34.200,-30.400,2.451,1.139
43,-28.500,-30.400,-26.600,1.662,0.648
44,-24.700,-26.600,-22.800,0.875,0.366
45,-20.900,-22.800,-19.000,2.100,0.810
46,-17.100,-19.000,-15.200,1.891,0.895
47,-13.300,-15.200,-11.400,1.655,0.497
48,-9.500,-11.400,-7.600,4.202,2.534
49,-5.700,-7.600,-3.800,0.444,0.131
50,-1.900,-3.800,0.000,2.805,1.331
51,1.900,0.000,3.800,2.391,1.399
52,5.700,3.800,7.600,0.708,0.258
53,9.500,7.600,11.400,0.990,0.411
54,13.300,11.400,15.200,2.481,0.891
55,17.100,15.200,19.000,5.681,1.970
56,20.900,19.000,22.800,1.332,0.442
57,24.700,22.800,26.600,2.110,0.530
58,28.500,26.600,30.400,3.481,1.406
59,32.300,30.400,34.200,1.178,0.461
60,36.100,34.200,38.000,2.088,0.660
61,39.900,38.000,41.800,2.757,1.124
62,43.700,41.800,45.600,3.753,1.440
63,47.500,45.600,49.400,3.391,1.056
64,51.300,49.400,53.200,5.129,1.823
65,55.100,53.200,57.000,8.972,3.409
66,58.900,57.000,60.800,6.826,1.578
67,62.700,60.800,64.600,7.906,2.180
68,66.500,64.600,68.400,9.903,1.950
69,70.300,68.400,72.200,14.635,3.533
70,74.100,72.200,76.000,15.498,3.932
71,77.900,76.000,79.800,27.798,4.556
72,81.700,79.800,83.600,42.844,5.968
73,85.500,83.600,87.400,43.792,5.031
74,89.300,87.400,91.200,76.327,6.952
75,93.100,91.200,95.000,97.876,7.306
76,96.900,95.000,98.800,156.859,9.831
77,100.700,98.800,102.600,168.970,8.677
78,104.500,102.600,106.400,224.010,10.244
79,108.300,106.400,110.200,282.222,13.331
80,112.100,110.200,114.000,360.009,17.682
81,115.900,114.000,117.800,360.869,14.884
82,119.700,117.800,121.600,439.001,20.852
83,123.500,121.600,125.400,417.351,18.812
84,127.300,125.400,129.200,501.378,21.885
85,131.100,129.200,133.000,560.916,26.441
86,134.900,133.000,136.800,549.616,25.792
87,138.700,136.800,140.600,617.440,31.396
88,142.500,140.600,144.400,688.692,30.628
89,146.300,144.400,148.200,661.797,30.595
90,150.100,148.200,152.000,736.301,36.023
91,153.900,152.000,155.800,706.514,31.805
92,157.700,155.800,159.600,763.814,32.960
93,161.500,159.600,163.400,841.221,42.116
94,165.300,163.400,167.200,787.031,37.387
95,169.100,167.200,171.000,801.314,36.056
96,172.900,171.000,174.800,799.085,35.469
97,176.700,174.800,178.600,854.067,44.253
98,180.500,178.600,182.400,317.310,26.838
99,184.300,182.400,186.200,0.000,0.000
100,188.100,186.200,190.000,0.000,0.000
