# 1D Histogram Bin Extraction 
#                   
# histogram parameters:  
# title      : Out-of-Plane Angle, $\phi_{pq}$   
# xbins      : 100   
# xlabel     :  out-of-plane angle, $\phi_{pq}$ [deg]   
# xbin_width : 3.800 
# ylabel     :  Counts   
#                   
# header definitions:
# xb:         x-axis bin number 
# x0:         x-axis central bin value 
# xlow:       x-axis low-edge bin value 
# xup:        x-axis up-edge bin value 
# ycont:      bin content (y-axis) 
# ycont_err:  bin content error (y-axis) 
#                                        
xb,x0,xlow,xup,ycont,ycont_err
1,-188.100,-190.000,-186.200,0.000,0.000
2,-184.300,-186.200,-182.400,0.000,0.000
3,-180.500,-182.400,-178.600,6029.745,724.661
4,-176.700,-178.600,-174.800,12299.498,863.626
5,-172.900,-174.800,-171.000,13430.017,990.326
6,-169.100,-171.000,-167.200,13516.627,979.011
7,-165.300,-167.200,-163.400,13378.467,929.684
8,-161.500,-163.400,-159.600,13891.415,1051.380
9,-157.700,-159.600,-155.800,13776.332,1062.669
10,-153.900,-155.800,-152.000,14140.628,1018.503
11,-150.100,-152.000,-148.200,12882.435,946.486
12,-146.300,-148.200,-144.400,13164.270,940.119
13,-142.500,-144.400,-140.600,11935.192,889.443
14,-138.700,-140.600,-136.800,11785.242,922.108
15,-134.900,-136.800,-133.000,12230.757,914.746
16,-131.100,-133.000,-129.200,11374.482,832.987
17,-127.300,-129.200,-125.400,11585.483,863.105
18,-123.500,-125.400,-121.600,10178.299,824.505
19,-119.700,-121.600,-117.800,8964.563,685.255
20,-115.900,-117.800,-114.000,9315.702,947.379
21,-112.100,-114.000,-110.200,7099.046,518.939
22,-108.300,-110.200,-106.400,7519.676,616.114
23,-104.500,-106.400,-102.600,7849.223,913.375
24,-100.700,-102.600,-98.800,7528.092,775.216
25,-96.900,-98.800,-95.000,6133.313,559.915
26,-93.100,-95.000,-91.200,6731.678,645.719
27,-89.300,-91.200,-87.400,4591.896,439.206
28,-85.500,-87.400,-83.600,5054.353,589.166
29,-81.700,-83.600,-79.800,3853.922,479.646
30,-77.900,-79.800,-76.000,3517.175,431.456
31,-74.100,-76.000,-72.200,3291.201,582.575
32,-70.300,-72.200,-68.400,1664.918,244.052
33,-66.500,-68.400,-64.600,1767.132,223.511
34,-62.700,-64.600,-60.800,1762.519,332.487
35,-58.900,-60.800,-57.000,1340.753,336.137
36,-55.100,-57.000,-53.200,1183.843,193.355
37,-51.300,-53.200,-49.400,900.094,202.257
38,-47.500,-49.400,-45.600,1066.565,281.507
39,-43.700,-45.600,-41.800,792.763,181.892
40,-39.900,-41.800,-38.000,900.849,492.647
41,-36.100,-38.000,-34.200,784.182,156.144
42,-32.300,-34.200,-30.400,851.258,187.364
43,-28.500,-30.400,-26.600,484.264,136.497
44,-24.700,-26.600,-22.800,705.018,227.485
45,-20.900,-22.800,-19.000,706.511,370.479
46,-17.100,-19.000,-15.200,588.011,181.262
47,-13.300,-15.200,-11.400,420.882,96.634
48,-9.500,-11.400,-7.600,617.580,257.809
49,-5.700,-7.600,-3.800,294.703,77.256
50,-1.900,-3.800,0.000,414.354,236.220
51,1.900,0.000,3.800,308.358,75.888
52,5.700,3.800,7.600,368.610,109.692
53,9.500,7.600,11.400,830.510,261.818
54,13.300,11.400,15.200,477.804,150.653
55,17.100,15.200,19.000,612.245,140.641
56,20.900,19.000,22.800,508.469,131.274
57,24.700,22.800,26.600,312.054,76.102
58,28.500,26.600,30.400,737.054,262.157
59,32.300,30.400,34.200,698.556,199.338
60,36.100,34.200,38.000,867.000,206.652
61,39.900,38.000,41.800,564.144,172.213
62,43.700,41.800,45.600,728.729,180.262
63,47.500,45.600,49.400,1075.957,317.525
64,51.300,49.400,53.200,1461.247,323.260
65,55.100,53.200,57.000,997.129,191.496
66,58.900,57.000,60.800,1773.230,323.523
67,62.700,60.800,64.600,1446.857,276.949
68,66.500,64.600,68.400,1352.984,254.548
69,70.300,68.400,72.200,2486.458,407.801
70,74.100,72.200,76.000,3232.382,710.769
71,77.900,76.000,79.800,4058.062,571.952
72,81.700,79.800,83.600,3977.918,541.307
73,85.500,83.600,87.400,5699.572,571.736
74,89.300,87.400,91.200,6681.858,769.805
75,93.100,91.200,95.000,7540.868,718.054
76,96.900,95.000,98.800,8395.076,764.776
77,100.700,98.800,102.600,7705.359,583.773
78,104.500,102.600,106.400,8419.492,760.623
79,108.300,106.400,110.200,8464.086,606.552
80,112.100,110.200,114.000,10095.441,738.959
81,115.900,114.000,117.800,11944.436,895.309
82,119.700,117.800,121.600,10321.836,806.887
83,123.500,121.600,125.400,11237.047,778.636
84,127.300,125.400,129.200,12007.235,819.170
85,131.100,129.200,133.000,14317.013,1070.042
86,134.900,133.000,136.800,13771.354,981.001
87,138.700,136.800,140.600,12369.308,926.627
88,142.500,140.600,144.400,13813.020,1006.394
89,146.300,144.400,148.200,15864.068,1157.353
90,150.100,148.200,152.000,14693.080,1002.658
91,153.900,152.000,155.800,14497.142,1019.263
92,157.700,155.800,159.600,13223.521,996.338
93,161.500,159.600,163.400,16423.029,1168.474
94,165.300,163.400,167.200,14759.643,1160.093
95,169.100,167.200,171.000,13944.243,1029.504
96,172.900,171.000,174.800,13529.171,976.984
97,176.700,174.800,178.600,14165.338,1034.931
98,180.500,178.600,182.400,5014.300,587.150
99,184.300,182.400,186.200,0.000,0.000
100,188.100,186.200,190.000,0.000,0.000
