# 1D Histogram Bin Extraction 
#                   
# histogram parameters:  
# title      : Out-of-Plane Angle, $\phi_{pq}$ (vertex)   
# xbins      : 100   
# xlabel     :  out-of-plane angle, $\phi_{pq}$ [deg]   
# xbin_width : 3.800 
# ylabel     :  Counts   
#                   
# header definitions:
# xb:         x-axis bin number 
# x0:         x-axis central bin value 
# xlow:       x-axis low-edge bin value 
# xup:        x-axis up-edge bin value 
# ycont:      bin content (y-axis) 
# ycont_err:  bin content error (y-axis) 
#                                        
xb,x0,xlow,xup,ycont,ycont_err
1,-188.100,-190.000,-186.200,0.000,0.000
2,-184.300,-186.200,-182.400,0.000,0.000
3,-180.500,-182.400,-178.600,208.240,73.326
4,-176.700,-178.600,-174.800,380.324,64.285
5,-172.900,-174.800,-171.000,296.738,37.194
6,-169.100,-171.000,-167.200,521.299,131.648
7,-165.300,-167.200,-163.400,298.543,38.922
8,-161.500,-163.400,-159.600,471.953,84.688
9,-157.700,-159.600,-155.800,526.943,129.553
10,-153.900,-155.800,-152.000,526.743,116.945
11,-150.100,-152.000,-148.200,454.489,92.174
12,-146.300,-148.200,-144.400,356.924,83.663
13,-142.500,-144.400,-140.600,534.062,122.640
14,-138.700,-140.600,-136.800,411.168,114.055
15,-134.900,-136.800,-133.000,586.855,174.235
16,-131.100,-133.000,-129.200,206.528,36.186
17,-127.300,-129.200,-125.400,257.929,54.453
18,-123.500,-125.400,-121.600,187.804,28.883
19,-119.700,-121.600,-117.800,142.055,18.035
20,-115.900,-117.800,-114.000,176.114,33.752
21,-112.100,-114.000,-110.200,146.578,24.409
22,-108.300,-110.200,-106.400,165.507,68.631
23,-104.500,-106.400,-102.600,94.258,18.696
24,-100.700,-102.600,-98.800,98.471,41.107
25,-96.900,-98.800,-95.000,87.738,20.836
26,-93.100,-95.000,-91.200,34.408,5.799
27,-89.300,-91.200,-87.400,16.699,2.636
28,-85.500,-87.400,-83.600,18.749,6.997
29,-81.700,-83.600,-79.800,18.660,5.284
30,-77.900,-79.800,-76.000,5.365,1.210
31,-74.100,-76.000,-72.200,1.688,0.648
32,-70.300,-72.200,-68.400,2.857,0.838
33,-66.500,-68.400,-64.600,10.229,6.070
34,-62.700,-64.600,-60.800,5.481,2.559
35,-58.900,-60.800,-57.000,0.827,0.454
36,-55.100,-57.000,-53.200,0.683,0.306
37,-51.300,-53.200,-49.400,5.498,3.801
38,-47.500,-49.400,-45.600,0.213,0.094
39,-43.700,-45.600,-41.800,0.247,0.095
40,-39.900,-41.800,-38.000,0.246,0.100
41,-36.100,-38.000,-34.200,0.075,0.031
42,-32.300,-34.200,-30.400,1.309,0.747
43,-28.500,-30.400,-26.600,0.900,0.850
44,-24.700,-26.600,-22.800,1.535,0.828
45,-20.900,-22.800,-19.000,0.290,0.230
46,-17.100,-19.000,-15.200,0.405,0.278
47,-13.300,-15.200,-11.400,0.059,0.029
48,-9.500,-11.400,-7.600,0.542,0.527
49,-5.700,-7.600,-3.800,0.721,0.441
50,-1.900,-3.800,0.000,1.048,0.610
51,1.900,0.000,3.800,0.582,0.314
52,5.700,3.800,7.600,0.081,0.047
53,9.500,7.600,11.400,6.609,4.760
54,13.300,11.400,15.200,0.110,0.089
55,17.100,15.200,19.000,0.884,0.723
56,20.900,19.000,22.800,1.475,1.047
57,24.700,22.800,26.600,0.150,0.066
58,28.500,26.600,30.400,0.567,0.357
59,32.300,30.400,34.200,0.583,0.353
60,36.100,34.200,38.000,1.546,1.425
61,39.900,38.000,41.800,24.167,16.518
62,43.700,41.800,45.600,1.691,0.990
63,47.500,45.600,49.400,1.963,1.221
64,51.300,49.400,53.200,2.683,2.127
65,55.100,53.200,57.000,2.944,2.038
66,58.900,57.000,60.800,1.549,0.524
67,62.700,60.800,64.600,11.293,7.445
68,66.500,64.600,68.400,6.079,2.745
69,70.300,68.400,72.200,6.037,3.578
70,74.100,72.200,76.000,9.338,3.536
71,77.900,76.000,79.800,6.811,5.159
72,81.700,79.800,83.600,13.315,4.424
73,85.500,83.600,87.400,15.731,3.594
74,89.300,87.400,91.200,65.279,24.097
75,93.100,91.200,95.000,38.707,10.940
76,96.900,95.000,98.800,100.824,22.569
77,100.700,98.800,102.600,87.122,16.003
78,104.500,102.600,106.400,149.768,28.956
79,108.300,106.400,110.200,97.197,13.049
80,112.100,110.200,114.000,207.685,47.573
81,115.900,114.000,117.800,243.161,65.451
82,119.700,117.800,121.600,197.315,30.316
83,123.500,121.600,125.400,177.299,20.930
84,127.300,125.400,129.200,247.651,38.863
85,131.100,129.200,133.000,393.849,76.068
86,134.900,133.000,136.800,287.798,38.459
87,138.700,136.800,140.600,383.234,68.278
88,142.500,140.600,144.400,551.143,120.939
89,146.300,144.400,148.200,436.401,127.525
90,150.100,148.200,152.000,520.584,104.063
91,153.900,152.000,155.800,458.118,98.834
92,157.700,155.800,159.600,556.937,123.945
93,161.500,159.600,163.400,597.819,153.232
94,165.300,163.400,167.200,701.220,187.246
95,169.100,167.200,171.000,527.591,92.117
96,172.900,171.000,174.800,464.945,99.737
97,176.700,174.800,178.600,414.333,68.081
98,180.500,178.600,182.400,339.161,188.407
99,184.300,182.400,186.200,0.000,0.000
100,188.100,186.200,190.000,0.000,0.000
