# 1D Histogram Bin Extraction 
#                   
# histogram parameters:  
# title      : Out-of-Plane Angle, $\phi_{pq}$ (vertex)   
# xbins      : 100   
# xlabel     :  out-of-plane angle, $\phi_{pq}$ [deg]   
# xbin_width : 3.800 
# ylabel     :  Counts   
#                   
# header definitions:
# xb:         x-axis bin number 
# x0:         x-axis central bin value 
# xlow:       x-axis low-edge bin value 
# xup:        x-axis up-edge bin value 
# ycont:      bin content (y-axis) 
# ycont_err:  bin content error (y-axis) 
#                                        
xb,x0,xlow,xup,ycont,ycont_err
1,-188.100,-190.000,-186.200,0.000,0.000
2,-184.300,-186.200,-182.400,0.000,0.000
3,-180.500,-182.400,-178.600,460.869,106.172
4,-176.700,-178.600,-174.800,1102.378,236.376
5,-172.900,-174.800,-171.000,1754.017,446.175
6,-169.100,-171.000,-167.200,1124.196,190.301
7,-165.300,-167.200,-163.400,1153.537,219.970
8,-161.500,-163.400,-159.600,2157.862,647.935
9,-157.700,-159.600,-155.800,2072.205,717.724
10,-153.900,-155.800,-152.000,1506.372,301.731
11,-150.100,-152.000,-148.200,1079.510,313.749
12,-146.300,-148.200,-144.400,2095.084,458.280
13,-142.500,-144.400,-140.600,1067.146,259.002
14,-138.700,-140.600,-136.800,2204.490,609.804
15,-134.900,-136.800,-133.000,1302.280,286.916
16,-131.100,-133.000,-129.200,1046.854,276.569
17,-127.300,-129.200,-125.400,865.951,212.239
18,-123.500,-125.400,-121.600,953.621,213.386
19,-119.700,-121.600,-117.800,541.408,88.013
20,-115.900,-117.800,-114.000,837.225,178.980
21,-112.100,-114.000,-110.200,893.349,195.042
22,-108.300,-110.200,-106.400,910.190,222.412
23,-104.500,-106.400,-102.600,1123.644,352.851
24,-100.700,-102.600,-98.800,472.900,124.269
25,-96.900,-98.800,-95.000,655.255,179.864
26,-93.100,-95.000,-91.200,892.520,306.410
27,-89.300,-91.200,-87.400,292.066,128.739
28,-85.500,-87.400,-83.600,363.881,115.209
29,-81.700,-83.600,-79.800,156.336,35.739
30,-77.900,-79.800,-76.000,283.388,91.308
31,-74.100,-76.000,-72.200,227.535,79.626
32,-70.300,-72.200,-68.400,170.047,55.076
33,-66.500,-68.400,-64.600,186.701,90.215
34,-62.700,-64.600,-60.800,154.275,48.418
35,-58.900,-60.800,-57.000,70.625,31.129
36,-55.100,-57.000,-53.200,49.505,17.129
37,-51.300,-53.200,-49.400,170.246,115.882
38,-47.500,-49.400,-45.600,208.734,128.925
39,-43.700,-45.600,-41.800,112.027,76.324
40,-39.900,-41.800,-38.000,353.708,259.190
41,-36.100,-38.000,-34.200,54.945,22.437
42,-32.300,-34.200,-30.400,17.682,11.925
43,-28.500,-30.400,-26.600,26.867,11.129
44,-24.700,-26.600,-22.800,31.624,17.449
45,-20.900,-22.800,-19.000,25.044,16.654
46,-17.100,-19.000,-15.200,18.841,5.519
47,-13.300,-15.200,-11.400,14.346,8.177
48,-9.500,-11.400,-7.600,20.285,9.338
49,-5.700,-7.600,-3.800,16.756,6.347
50,-1.900,-3.800,0.000,31.335,12.896
51,1.900,0.000,3.800,143.944,99.265
52,5.700,3.800,7.600,96.513,68.268
53,9.500,7.600,11.400,74.299,62.031
54,13.300,11.400,15.200,171.992,116.631
55,17.100,15.200,19.000,22.906,11.362
56,20.900,19.000,22.800,332.389,255.062
57,24.700,22.800,26.600,169.775,163.571
58,28.500,26.600,30.400,29.418,18.789
59,32.300,30.400,34.200,22.005,12.015
60,36.100,34.200,38.000,19.560,6.518
61,39.900,38.000,41.800,304.266,280.487
62,43.700,41.800,45.600,225.122,181.286
63,47.500,45.600,49.400,58.533,25.220
64,51.300,49.400,53.200,521.393,445.431
65,55.100,53.200,57.000,70.027,31.590
66,58.900,57.000,60.800,72.262,30.156
67,62.700,60.800,64.600,318.013,131.872
68,66.500,64.600,68.400,116.921,35.724
69,70.300,68.400,72.200,188.468,64.119
70,74.100,72.200,76.000,418.993,132.310
71,77.900,76.000,79.800,308.558,90.678
72,81.700,79.800,83.600,429.656,116.189
73,85.500,83.600,87.400,1169.014,454.771
74,89.300,87.400,91.200,425.762,92.912
75,93.100,91.200,95.000,641.951,163.106
76,96.900,95.000,98.800,582.739,167.929
77,100.700,98.800,102.600,542.112,156.083
78,104.500,102.600,106.400,777.160,161.727
79,108.300,106.400,110.200,861.684,214.261
80,112.100,110.200,114.000,1302.091,280.603
81,115.900,114.000,117.800,988.848,321.357
82,119.700,117.800,121.600,1190.205,386.217
83,123.500,121.600,125.400,1530.695,539.574
84,127.300,125.400,129.200,1318.518,352.997
85,131.100,129.200,133.000,1312.169,256.180
86,134.900,133.000,136.800,1052.106,169.868
87,138.700,136.800,140.600,1616.166,345.930
88,142.500,140.600,144.400,1430.829,252.465
89,146.300,144.400,148.200,1418.480,328.642
90,150.100,148.200,152.000,1263.799,346.060
91,153.900,152.000,155.800,1080.663,165.345
92,157.700,155.800,159.600,1002.139,163.832
93,161.500,159.600,163.400,1992.046,397.495
94,165.300,163.400,167.200,1054.207,211.629
95,169.100,167.200,171.000,925.000,175.673
96,172.900,171.000,174.800,2093.841,539.618
97,176.700,174.800,178.600,869.522,131.839
98,180.500,178.600,182.400,482.233,144.979
99,184.300,182.400,186.200,0.000,0.000
100,188.100,186.200,190.000,0.000,0.000
