# 1D Histogram Bin Extraction 
#                   
# histogram parameters:  
# title      : Out-of-Plane Angle, $\phi_{pq}$ (vertex)   
# xbins      : 100   
# xlabel     :  out-of-plane angle, $\phi_{pq}$ [deg]   
# xbin_width : 3.800 
# ylabel     :  Counts   
#                   
# header definitions:
# xb:         x-axis bin number 
# x0:         x-axis central bin value 
# xlow:       x-axis low-edge bin value 
# xup:        x-axis up-edge bin value 
# ycont:      bin content (y-axis) 
# ycont_err:  bin content error (y-axis) 
#                                        
xb,x0,xlow,xup,ycont,ycont_err
1,-188.100,-190.000,-186.200,0.000,0.000
2,-184.300,-186.200,-182.400,0.000,0.000
3,-180.500,-182.400,-178.600,844.320,289.083
4,-176.700,-178.600,-174.800,2225.250,563.214
5,-172.900,-174.800,-171.000,1644.271,476.042
6,-169.100,-171.000,-167.200,2197.311,580.575
7,-165.300,-167.200,-163.400,1794.984,461.217
8,-161.500,-163.400,-159.600,1969.630,421.943
9,-157.700,-159.600,-155.800,2080.312,460.356
10,-153.900,-155.800,-152.000,1270.618,266.747
11,-150.100,-152.000,-148.200,2034.137,407.562
12,-146.300,-148.200,-144.400,1770.318,454.372
13,-142.500,-144.400,-140.600,1509.181,495.080
14,-138.700,-140.600,-136.800,1147.088,224.636
15,-134.900,-136.800,-133.000,2223.279,562.268
16,-131.100,-133.000,-129.200,1324.100,374.711
17,-127.300,-129.200,-125.400,1989.635,608.920
18,-123.500,-125.400,-121.600,1231.574,273.730
19,-119.700,-121.600,-117.800,1882.676,569.674
20,-115.900,-117.800,-114.000,1062.712,277.678
21,-112.100,-114.000,-110.200,1105.271,240.720
22,-108.300,-110.200,-106.400,1251.969,303.847
23,-104.500,-106.400,-102.600,1116.501,307.848
24,-100.700,-102.600,-98.800,1620.738,464.734
25,-96.900,-98.800,-95.000,1023.786,256.343
26,-93.100,-95.000,-91.200,1459.871,485.427
27,-89.300,-91.200,-87.400,793.949,201.653
28,-85.500,-87.400,-83.600,906.586,277.064
29,-81.700,-83.600,-79.800,330.399,74.479
30,-77.900,-79.800,-76.000,671.779,245.641
31,-74.100,-76.000,-72.200,835.088,543.417
32,-70.300,-72.200,-68.400,274.375,71.107
33,-66.500,-68.400,-64.600,365.878,215.769
34,-62.700,-64.600,-60.800,360.330,131.223
35,-58.900,-60.800,-57.000,541.919,181.526
36,-55.100,-57.000,-53.200,296.290,96.745
37,-51.300,-53.200,-49.400,180.985,94.619
38,-47.500,-49.400,-45.600,55.206,18.926
39,-43.700,-45.600,-41.800,90.337,41.572
40,-39.900,-41.800,-38.000,235.183,112.474
41,-36.100,-38.000,-34.200,151.626,54.539
42,-32.300,-34.200,-30.400,193.204,152.498
43,-28.500,-30.400,-26.600,293.403,163.798
44,-24.700,-26.600,-22.800,185.459,99.148
45,-20.900,-22.800,-19.000,36.633,13.098
46,-17.100,-19.000,-15.200,306.985,119.085
47,-13.300,-15.200,-11.400,179.015,74.930
48,-9.500,-11.400,-7.600,116.940,81.899
49,-5.700,-7.600,-3.800,464.066,379.094
50,-1.900,-3.800,0.000,224.359,107.032
51,1.900,0.000,3.800,356.008,175.773
52,5.700,3.800,7.600,115.067,60.489
53,9.500,7.600,11.400,37.450,19.234
54,13.300,11.400,15.200,79.581,50.796
55,17.100,15.200,19.000,272.218,160.092
56,20.900,19.000,22.800,43.517,22.337
57,24.700,22.800,26.600,32.397,12.598
58,28.500,26.600,30.400,89.307,41.833
59,32.300,30.400,34.200,156.245,63.741
60,36.100,34.200,38.000,163.281,72.679
61,39.900,38.000,41.800,193.016,73.754
62,43.700,41.800,45.600,357.553,162.310
63,47.500,45.600,49.400,396.311,138.264
64,51.300,49.400,53.200,306.835,119.721
65,55.100,53.200,57.000,121.581,52.447
66,58.900,57.000,60.800,610.637,349.110
67,62.700,60.800,64.600,631.446,354.762
68,66.500,64.600,68.400,736.575,217.953
69,70.300,68.400,72.200,382.953,119.835
70,74.100,72.200,76.000,1008.074,433.050
71,77.900,76.000,79.800,858.310,347.025
72,81.700,79.800,83.600,452.686,111.785
73,85.500,83.600,87.400,685.424,158.413
74,89.300,87.400,91.200,1306.858,602.768
75,93.100,91.200,95.000,741.549,124.980
76,96.900,95.000,98.800,1454.259,448.305
77,100.700,98.800,102.600,1258.735,576.468
78,104.500,102.600,106.400,1047.765,185.586
79,108.300,106.400,110.200,646.310,134.171
80,112.100,110.200,114.000,867.524,134.672
81,115.900,114.000,117.800,1097.455,247.599
82,119.700,117.800,121.600,1226.561,185.820
83,123.500,121.600,125.400,1157.641,210.967
84,127.300,125.400,129.200,2197.459,721.684
85,131.100,129.200,133.000,2122.796,436.840
86,134.900,133.000,136.800,1098.191,238.023
87,138.700,136.800,140.600,1750.806,443.944
88,142.500,140.600,144.400,1584.155,372.506
89,146.300,144.400,148.200,1708.510,416.395
90,150.100,148.200,152.000,3201.251,853.009
91,153.900,152.000,155.800,2638.228,768.593
92,157.700,155.800,159.600,1646.683,397.204
93,161.500,159.600,163.400,1754.085,286.918
94,165.300,163.400,167.200,1805.452,469.731
95,169.100,167.200,171.000,1712.088,435.195
96,172.900,171.000,174.800,2338.776,546.304
97,176.700,174.800,178.600,1934.076,460.504
98,180.500,178.600,182.400,393.094,152.112
99,184.300,182.400,186.200,0.000,0.000
100,188.100,186.200,190.000,0.000,0.000
