# 1D Histogram Bin Extraction 
#                   
# histogram parameters:  
# title      : Out-of-Plane Angle, $\phi_{pq}$ (vertex)   
# xbins      : 100   
# xlabel     :  out-of-plane angle, $\phi_{pq}$ [deg]   
# xbin_width : 3.800 
# ylabel     :  Counts   
#                   
# header definitions:
# xb:         x-axis bin number 
# x0:         x-axis central bin value 
# xlow:       x-axis low-edge bin value 
# xup:        x-axis up-edge bin value 
# ycont:      bin content (y-axis) 
# ycont_err:  bin content error (y-axis) 
#                                        
xb,x0,xlow,xup,ycont,ycont_err
1,-188.100,-190.000,-186.200,0.000,0.000
2,-184.300,-186.200,-182.400,0.000,0.000
3,-180.500,-182.400,-178.600,2198.226,305.638
4,-176.700,-178.600,-174.800,6490.028,562.311
5,-172.900,-174.800,-171.000,6275.895,537.196
6,-169.100,-171.000,-167.200,6717.401,588.305
7,-165.300,-167.200,-163.400,7412.250,640.686
8,-161.500,-163.400,-159.600,6150.657,560.625
9,-157.700,-159.600,-155.800,7180.588,644.184
10,-153.900,-155.800,-152.000,6485.612,546.841
11,-150.100,-152.000,-148.200,6882.263,545.368
12,-146.300,-148.200,-144.400,7390.182,555.664
13,-142.500,-144.400,-140.600,6580.495,568.045
14,-138.700,-140.600,-136.800,7901.823,617.500
15,-134.900,-136.800,-133.000,6190.271,522.072
16,-131.100,-133.000,-129.200,7615.641,570.371
17,-127.300,-129.200,-125.400,6855.080,543.826
18,-123.500,-125.400,-121.600,7804.371,562.902
19,-119.700,-121.600,-117.800,7747.509,611.203
20,-115.900,-117.800,-114.000,8634.168,632.060
21,-112.100,-114.000,-110.200,9504.124,736.880
22,-108.300,-110.200,-106.400,8714.257,623.675
23,-104.500,-106.400,-102.600,8703.104,622.905
24,-100.700,-102.600,-98.800,9628.930,679.265
25,-96.900,-98.800,-95.000,8104.192,561.623
26,-93.100,-95.000,-91.200,8365.394,618.053
27,-89.300,-91.200,-87.400,9121.019,668.569
28,-85.500,-87.400,-83.600,8001.547,574.413
29,-81.700,-83.600,-79.800,8882.704,683.502
30,-77.900,-79.800,-76.000,10252.943,792.512
31,-74.100,-76.000,-72.200,8395.845,592.599
32,-70.300,-72.200,-68.400,8811.398,693.777
33,-66.500,-68.400,-64.600,8163.266,661.250
34,-62.700,-64.600,-60.800,8762.425,710.709
35,-58.900,-60.800,-57.000,8776.931,739.265
36,-55.100,-57.000,-53.200,7470.045,555.784
37,-51.300,-53.200,-49.400,7297.891,637.164
38,-47.500,-49.400,-45.600,9034.880,794.587
39,-43.700,-45.600,-41.800,8403.150,735.461
40,-39.900,-41.800,-38.000,6847.741,596.700
41,-36.100,-38.000,-34.200,7919.398,728.524
42,-32.300,-34.200,-30.400,8956.053,850.554
43,-28.500,-30.400,-26.600,7155.547,655.512
44,-24.700,-26.600,-22.800,7162.930,684.447
45,-20.900,-22.800,-19.000,7682.660,768.373
46,-17.100,-19.000,-15.200,6540.373,628.353
47,-13.300,-15.200,-11.400,7228.553,764.737
48,-9.500,-11.400,-7.600,5899.986,677.194
49,-5.700,-7.600,-3.800,7708.325,764.313
50,-1.900,-3.800,0.000,7590.366,813.680
51,1.900,0.000,3.800,6492.208,660.227
52,5.700,3.800,7.600,5407.689,553.550
53,9.500,7.600,11.400,5989.547,665.873
54,13.300,11.400,15.200,7109.463,668.406
55,17.100,15.200,19.000,7298.810,700.025
56,20.900,19.000,22.800,6798.415,712.565
57,24.700,22.800,26.600,6702.129,615.334
58,28.500,26.600,30.400,6824.866,665.331
59,32.300,30.400,34.200,7389.733,702.832
60,36.100,34.200,38.000,7132.556,668.124
61,39.900,38.000,41.800,7478.294,655.552
62,43.700,41.800,45.600,8264.111,730.234
63,47.500,45.600,49.400,9012.784,773.527
64,51.300,49.400,53.200,8161.710,708.463
65,55.100,53.200,57.000,8297.844,697.755
66,58.900,57.000,60.800,10133.381,795.007
67,62.700,60.800,64.600,9263.485,666.168
68,66.500,64.600,68.400,9558.089,730.962
69,70.300,68.400,72.200,8765.737,652.211
70,74.100,72.200,76.000,9670.729,664.383
71,77.900,76.000,79.800,9014.938,677.586
72,81.700,79.800,83.600,9734.441,702.735
73,85.500,83.600,87.400,9372.396,613.589
74,89.300,87.400,91.200,9749.400,668.596
75,93.100,91.200,95.000,8897.376,617.671
76,96.900,95.000,98.800,10360.837,712.265
77,100.700,98.800,102.600,9315.640,641.730
78,104.500,102.600,106.400,9043.752,656.527
79,108.300,106.400,110.200,10294.315,678.888
80,112.100,110.200,114.000,8981.322,631.182
81,115.900,114.000,117.800,8895.969,652.782
82,119.700,117.800,121.600,8217.612,590.756
83,123.500,121.600,125.400,8695.817,629.444
84,127.300,125.400,129.200,8271.587,593.838
85,131.100,129.200,133.000,8551.493,717.894
86,134.900,133.000,136.800,7492.396,565.563
87,138.700,136.800,140.600,8636.437,665.952
88,142.500,140.600,144.400,7521.460,599.892
89,146.300,144.400,148.200,6465.394,523.769
90,150.100,148.200,152.000,6840.126,596.582
91,153.900,152.000,155.800,7190.998,574.771
92,157.700,155.800,159.600,7476.760,628.276
93,161.500,159.600,163.400,6403.790,541.139
94,165.300,163.400,167.200,6821.542,565.157
95,169.100,167.200,171.000,5634.825,512.694
96,172.900,171.000,174.800,6289.363,546.061
97,176.700,174.800,178.600,5737.014,494.856
98,180.500,178.600,182.400,2305.928,341.936
99,184.300,182.400,186.200,0.000,0.000
100,188.100,186.200,190.000,0.000,0.000
